Time,Temperature,Mass
[s],[K],[mg]
0.00,298.33,5.50E+00
2.00,298.33,5.51E+00
4.00,298.33839,5.48E+00
6.00,298.34741,5.45E+00
8.00,298.35802,5.44E+00
10.00,298.3747,5.43E+00
12.00,298.40133,5.43E+00
14.00,298.43741,5.43E+00
16.00,298.49239,5.43E+00
18.00,298.5673,5.43E+00
20.00,298.6668,5.43E+00
22.00,298.7912,5.43E+00
24.00,298.9429,5.43E+00
26.00,299.1249,5.43E+00
28.00,299.34043,5.43E+00
30.00,299.5878,5.43E+00
32.00,299.87375,5.44E+00
34.00,300.19541,5.44E+00
36.00,300.55643,5.44E+00
38.00,300.95107,5.44E+00
40.00,301.3823,5.44E+00
42.00,301.85225,5.43901985
44.00,302.36292,5.44870975
46.00,302.905,5.45435
48.00,303.48133,5.45332975
50.00,304.08731,5.43484975
52.00,304.72177,5.4353002
54.00,305.38497,5.43394005
56.00,306.0729,5.43811015
58.00,306.78866,5.4401402
60.00,307.52859,5.4416098
62.00,308.28897,5.44228025
64.00,309.07279,5.4416098
66.00,309.87134,5.43834005
68.00,310.68579,5.44082
70.00,311.51541,5.44351995
72.00,312.35856,5.44340995
74.00,313.21371,5.44430975
76.00,314.0768,5.44318995
78.00,314.94792,5.44262015
80.00,315.82395,5.44049
82.00,316.70538,5.44049
84.00,317.5912,5.44071
86.00,318.48011,5.43834005
88.00,319.36866,5.43923985
90.00,320.25913,5.43811015
92.00,321.14626,5.43767015
94.00,322.03364,5.43755025
96.00,322.91541,5.43528975
98.00,323.79698,5.43394005
100.00,324.67338,5.43304025
102.00,325.54562,5.4325898
104.00,326.41267,5.43293025
106.00,327.27761,5.43158
108.00,328.13679,5.43260025
110.00,328.98967,5.43260025
112.00,329.83479,5.43260025
114.00,330.67513,5.4312401
116.00,331.50869,5.4312401
118.00,332.33882,5.43191
120.00,333.1669,5.43191
122.00,333.9851,5.43191
124.00,334.79621,5.4309002
126.00,335.59934,5.43044975
128.00,336.40321,5.42909015
130.00,337.20105,5.43044975
132.00,337.99369,5.42910005
134.00,338.78066,5.4274099
136.00,339.56257,5.4263902
138.00,340.33939,5.42503995
140.00,341.11172,5.4260602
142.00,341.87893,5.42571975
144.00,342.63848,5.42503995
146.00,343.39261,5.42369025
148.00,344.14356,5.42369025
150.00,344.89328,5.4233498
152.00,345.64084,5.42369025
154.00,346.38226,5.4223301
156.00,347.12128,5.42097985
158.00,347.85672,5.41997005
160.00,348.58957,5.41963015
162.00,349.3192,5.41963015
164.00,350.0472,5.41963015
166.00,350.77205,5.41963015
168.00,351.49664,5.42030005
170.00,352.21807,5.42097985
172.00,352.9388,5.41963015
174.00,353.65869,5.42097985
176.00,354.37615,5.42097985
178.00,355.09566,5.42097985
180.00,355.81318,5.42097985
182.00,356.5308,5.42063995
184.00,357.24656,5.41962025
186.00,357.96043,5.41827
188.00,358.675,5.41827
190.00,359.38884,5.41827
192.00,360.1049,5.41827
194.00,360.8218,5.41827
196.00,361.54018,5.41827
198.00,362.25756,5.4186099
200.00,362.97203,5.4172602
202.00,363.68434,5.4172602
204.00,364.40031,5.4172602
206.00,365.11459,5.4172602
208.00,365.8261,5.4172602
210.00,366.5381,5.41691975
212.00,367.25262,5.41590995
214.00,367.96802,5.41590995
216.00,368.68071,5.41590995
218.00,369.3942,5.41590995
220.00,370.10995,5.4172602
222.00,370.82675,5.4172602
224.00,371.54015,5.4172602
226.00,372.25307,5.4172602
228.00,372.96203,5.4172602
230.00,373.67087,5.41794
232.00,374.37859,5.41794
234.00,375.09,5.41794
236.00,375.80005,5.4172602
238.00,376.50548,5.41658975
240.00,377.20821,5.41501015
242.00,377.9101,5.41501015
244.00,378.6112,5.41501015
246.00,379.31141,5.41702975
248.00,380.01054,5.41702975
250.00,380.71159,5.41702975
252.00,381.40675,5.41668985
254.00,382.10044,5.41668985
256.00,382.79505,5.41501015
258.00,383.48944,5.41568005
260.00,384.18193,5.41568005
262.00,384.87151,5.4170402
264.00,385.56097,5.4170402
266.00,386.24815,5.4170402
268.00,386.93179,5.41635985
270.00,387.6141,5.41635985
272.00,388.29738,5.41568005
274.00,388.98148,5.41568005
276.00,389.66682,5.4170402
278.00,390.3498,5.4170402
280.00,391.02956,5.41963015
282.00,391.70587,5.42492995
284.00,392.38193,5.42142975
286.00,393.05585,5.40756975
288.00,393.7317,5.40554025
290.00,394.40675,5.4079102
292.00,395.08179,5.41173985
294.00,395.75679,5.41106005
296.00,396.43223,5.41139005
298.00,397.10928,5.41172995
300.00,397.78333,5.41172995
302.00,398.45647,5.4130901
304.00,399.1272,5.4130901
306.00,399.80028,5.4130901
308.00,400.47323,5.41172995
310.00,401.14531,5.41172995
312.00,401.81385,5.4130901
314.00,402.48223,5.41343
316.00,403.15085,5.41343
318.00,403.82277,5.41343
320.00,404.49464,5.41343
322.00,405.16749,5.41072015
324.00,405.83882,5.41072015
326.00,406.50861,5.41229975
328.00,407.17903,5.41229975
330.00,407.84874,5.41229975
332.00,408.51851,5.41095005
334.00,409.18818,5.41095005
336.00,409.85882,5.4095998
338.00,410.5279,5.4095998
340.00,411.19569,5.4095998
342.00,411.86385,5.4095998
344.00,412.53415,5.41095005
346.00,413.20439,5.41061015
348.00,413.87516,5.4099298
350.00,414.54357,5.4081302
352.00,415.21325,5.40666005
354.00,415.88354,5.4053098
356.00,416.55492,5.4043
358.00,417.22388,5.40565025
360.00,417.89182,5.40565025
362.00,418.55757,5.40633005
364.00,419.22616,5.40633005
366.00,419.89433,5.4053098
368.00,420.56438,5.4053098
370.00,421.23243,5.40599015
372.00,421.90233,5.40599015
374.00,422.56969,5.4040701
376.00,423.23951,5.40181015
378.00,423.90952,5.40148015
380.00,424.58046,5.4004599
382.00,425.25185,5.4004599
384.00,425.92003,5.4004599
386.00,426.58736,5.3991102
388.00,427.25326,5.3991102
390.00,427.91962,5.3994501
392.00,428.58633,5.39842985
394.00,429.25205,5.39842985
396.00,429.92052,5.39831985
398.00,430.58728,5.39797995
400.00,431.2552,5.3959598
402.00,431.91923,5.3956199
404.00,432.5849,5.3956199
406.00,433.25156,5.3956199
408.00,433.91862,5.3949401
410.00,434.58551,5.3949401
412.00,435.24939,5.39561
414.00,435.91395,5.39561
416.00,436.57859,5.39313995
418.00,437.24408,5.39280005
420.00,437.90797,5.39280005
422.00,438.57031,5.3901001
424.00,439.23249,5.3901001
426.00,439.89415,5.38874985
428.00,440.5562,5.38874985
430.00,441.21708,5.38874985
432.00,441.88005,5.38739025
434.00,442.54393,5.38739025
436.00,443.20715,5.3867198
438.00,443.86903,5.38604
440.00,444.52949,5.38321025
442.00,445.19249,5.38321025
444.00,445.85659,5.38356005
446.00,446.52134,5.38322015
448.00,447.18449,5.38355015
450.00,447.84762,5.38288025
452.00,448.51198,5.3825398
454.00,449.17764,5.3811901
456.00,449.84318,5.37994985
458.00,450.50646,5.3771399
460.00,451.1678,5.37498995
462.00,451.83177,5.37420015
464.00,452.4972,5.3728499
466.00,453.16428,5.37137975
468.00,453.83082,5.37137975
470.00,454.49787,5.37126975
472.00,455.16456,5.3735198
474.00,455.82933,5.37554985
476.00,456.49366,5.368
478.00,457.15974,5.36473025
480.00,457.82608,5.35705995
482.00,458.49433,5.3508598
484.00,459.16329,5.35414
486.00,459.83216,5.3539101
488.00,460.4997,5.3505199
490.00,461.1661,5.34726005
492.00,461.83402,5.34703015
494.00,462.50234,5.34636025
496.00,463.17084,5.3458999
498.00,463.84066,5.34692015
500.00,464.51051,5.34614025
502.00,465.17998,5.34353985
504.00,465.84795,5.3418398
506.00,466.51434,5.33891985
508.00,467.18138,5.3364399
510.00,467.84941,5.3366698
512.00,468.51831,5.3355401
514.00,469.18779,5.3317099
516.00,469.85575,5.3273
518.00,470.5221,5.32560985
520.00,471.18567,5.3234698
522.00,471.85092,5.32348025
524.00,472.5182,5.3219001
526.00,473.18734,5.3187398
528.00,473.85848,5.31647985
530.00,474.52539,5.3169402
532.00,475.19361,5.31558995
534.00,475.86079,5.3125402
536.00,476.52813,5.3091599
538.00,477.19749,5.30757975
540.00,477.86516,5.30600015
542.00,478.53392,5.3046499
544.00,479.20036,5.3033002
546.00,479.86541,5.30272985
548.00,480.53149,5.30172005
550.00,481.20018,5.3003698
552.00,481.8679,5.2987902
554.00,482.53382,5.2961898
556.00,483.19872,5.29248005
558.00,483.86433,5.29034
560.00,484.5301,5.28808005
562.00,485.19226,5.2858201
564.00,485.85605,5.28379005
566.00,486.52144,5.28267025
568.00,487.18792,5.2806402
570.00,487.85205,5.28051975
572.00,488.51743,5.2818799
574.00,489.18425,5.2902201
576.00,489.8532,5.28390995
578.00,490.51898,5.26779
580.00,491.18454,5.2580902
582.00,491.85046,5.2532502
584.00,492.51695,5.25629005
586.00,493.18195,5.25607005
588.00,493.84654,5.25607005
590.00,494.51041,5.25595015
592.00,495.1768,5.2550498
594.00,495.84044,5.25290975
596.00,496.50402,5.25133015
598.00,497.1657,5.24704015
600.00,497.83079,5.24513
602.00,498.49705,5.2444502
604.00,499.1653,5.24388975
606.00,499.83154,5.24164025
608.00,500.49574,5.2400601
610.00,501.16072,5.23859985
612.00,501.82602,5.23713025
614.00,502.49493,5.23567
616.00,503.16,5.2349902
618.00,503.82661,5.23396995
620.00,504.49161,5.23262025
622.00,505.15743,5.23002975
624.00,505.82559,5.2272
626.00,506.49077,5.2272
628.00,507.15838,5.2261902
630.00,507.82362,5.2265301
632.00,508.48913,5.2272099
634.00,509.15415,5.22676
636.00,509.81677,5.2270999
638.00,510.48397,5.22573975
640.00,511.14905,5.22573975
642.00,511.8153,5.22472005
644.00,512.48107,5.2230398
646.00,513.14764,5.2223699
648.00,513.81311,5.22066985
650.00,514.47842,5.21931025
652.00,515.1438,5.21898025
654.00,515.8089,5.21898025
656.00,516.4737,5.21898025
658.00,517.13928,5.21796
660.00,517.8039,5.2176201
662.00,518.46993,5.2176201
664.00,519.13511,5.21626985
666.00,519.8013,5.21626985
668.00,520.46684,5.21626985
670.00,521.13452,5.21492015
672.00,521.80318,5.21492015
674.00,522.47221,5.2128901
676.00,523.13885,5.2122202
678.00,523.80523,5.2122202
680.00,524.47349,5.21119995
682.00,525.14241,5.2125502
684.00,525.81264,5.21220975
686.00,526.47629,5.21220975
688.00,527.14059,5.21086005
690.00,527.80528,5.21086005
692.00,528.47452,5.2095098
694.00,529.14267,5.2095098
696.00,529.80872,5.20747975
698.00,530.47398,5.20646995
700.00,531.13975,5.20545025
702.00,531.80718,5.2044399
704.00,532.47805,5.2041
706.00,533.14787,5.2034301
708.00,533.81677,5.20274975
710.00,534.48192,5.20274975
712.00,535.15018,5.2000399
714.00,535.81849,5.1990202
716.00,536.48954,5.19867975
718.00,537.15941,5.19632025
720.00,537.82746,5.19632025
722.00,538.49497,5.19497
724.00,539.15885,5.19338985
726.00,539.82594,5.19486
728.00,540.49356,5.19350975
730.00,541.16346,5.19350975
732.00,541.83095,5.19079
734.00,542.49769,5.1897802
736.00,543.16516,5.18730025
738.00,543.83164,5.1866298
740.00,544.49746,5.1868498
742.00,545.16131,5.1867398
744.00,545.82761,5.1852702
746.00,546.4939,5.18458985
748.00,547.1639,5.18391995
750.00,547.83246,5.18122
752.00,548.4991,5.17974985
754.00,549.16082,5.17817025
756.00,549.82382,5.1765901
758.00,550.4871,5.17501985
760.00,551.15218,5.1722
762.00,551.81736,5.1718601
764.00,552.48436,5.16949015
766.00,553.15126,5.1666802
768.00,553.8167,5.16565995
770.00,554.48229,5.16576995
772.00,555.14693,5.16509015
774.00,555.81297,5.16318
776.00,556.47835,5.15969025
778.00,557.14454,5.15552015
780.00,557.80943,5.15394
782.00,558.47439,5.15235985
784.00,559.13892,5.1496599
786.00,559.80316,5.14661015
788.00,560.46657,5.14356975
790.00,561.13138,5.14143025
792.00,561.79541,5.13726015
794.00,562.46025,5.13465975
796.00,563.12364,5.13420985
798.00,563.78962,5.13308015
800.00,564.45403,5.1319598
802.00,565.11957,5.1274498
804.00,565.78308,5.12518985
806.00,566.44876,5.1217001
808.00,567.11222,5.1187598
810.00,567.77739,5.1128
812.00,568.44282,5.1092998
814.00,569.10734,5.10625995
816.00,569.76869,5.1028802
818.00,570.4301,5.09801985
820.00,571.09551,5.0943002
822.00,571.76226,5.09058
824.00,572.42571,5.0864099
826.00,573.09066,5.08348005
828.00,573.7562,5.08009975
830.00,574.4238,5.07479995
832.00,575.08954,5.07006995
834.00,575.75251,5.06566995
836.00,576.41607,5.0622902
838.00,577.07874,5.0595798
840.00,577.74394,5.05586015
842.00,578.4101,5.0499999
844.00,579.07744,5.04482
846.00,579.74502,5.0398601
848.00,580.41313,5.0358
850.00,581.07936,5.0322998
852.00,581.74492,5.02802025
854.00,582.40731,5.0230598
856.00,583.07466,5.0184398
858.00,583.73967,5.01517995
860.00,584.40641,5.0089798
862.00,585.07057,5.00604005
864.00,585.73665,5.0035601
866.00,586.40349,4.99746995
868.00,587.0701,4.99150025
870.00,587.73595,4.9846302
872.00,588.40059,4.97503985
874.00,589.06485,4.96423015
876.00,589.72989,4.95081015
878.00,590.39728,4.95137005
880.00,591.06303,4.95711975
882.00,591.73029,4.95058025
884.00,592.39687,4.94291985
886.00,593.0653,4.93694025
888.00,593.73277,4.9318698
890.00,594.39964,4.92972975
892.00,595.06495,4.9229598
894.00,595.7302,4.91395025
896.00,596.39635,4.90594005
898.00,597.06161,4.89907
900.00,597.72652,4.8903899
902.00,598.39354,4.8806901
904.00,599.06023,4.87201
906.00,599.7282,4.86468015
908.00,600.39575,4.8538699
910.00,601.06285,4.8452998
912.00,601.72775,4.8349301
914.00,602.38951,4.82614
916.00,603.05239,4.81497995
918.00,603.71798,4.80234975
920.00,604.38666,4.7892702
922.00,605.05559,4.77934985
924.00,605.72212,4.7670601
926.00,606.38607,4.7572602
928.00,607.0488,4.74237995
930.00,607.71344,4.72985975
932.00,608.37944,4.7175799
934.00,609.04392,4.7124
936.00,609.70754,4.7029301
938.00,610.37129,4.67802005
940.00,611.03903,4.65355
942.00,611.70488,4.6302201
944.00,612.36949,4.61082985
946.00,613.03136,4.60012025
948.00,613.69747,4.58298995
950.00,614.36405,4.5658602
952.00,615.03292,4.5452198
954.00,615.69813,4.52697025
956.00,616.36285,4.50453025
958.00,617.02477,4.48514
960.00,617.68874,4.4659802
962.00,618.3519,4.4523402
964.00,619.01682,4.41502985
966.00,619.68321,4.3751202
968.00,620.34743,4.3482901
970.00,621.01165,4.32789005
972.00,621.67584,4.30072995
974.00,622.34246,4.2762599
976.00,623.00961,4.2442499
978.00,623.67387,4.21652
980.00,624.33792,4.18124025
982.00,625.00072,4.15024005
984.00,625.66321,4.11461985
986.00,626.32631,4.08293985
988.00,626.98974,4.04495025
990.00,627.65446,4.0123699
992.00,628.3202,3.97382975
994.00,628.98577,3.9382101
996.00,629.65166,3.89660975
998.00,630.31538,3.86144
1000.00,630.98018,3.8166898
1002.00,631.64262,3.7748601
1004.00,632.30851,3.72707005
1006.00,632.9713,3.68671985
1008.00,633.63762,3.63825
1010.00,634.3007,3.59574985
1012.00,634.9658,3.5470501
1014.00,635.63062,3.4981298
1016.00,636.29762,3.44402025
1018.00,636.96323,3.3983598
1020.00,637.63028,3.33207985
1022.00,638.29561,3.28608995
1024.00,638.96318,3.25318015
1026.00,639.62831,3.2068498
1028.00,640.29408,3.14417015
1030.00,640.95874,3.09073985
1032.00,641.62341,3.0323502
1034.00,642.28839,2.9790299
1036.00,642.95402,2.91140025
1038.00,643.62025,2.86315975
1040.00,644.28739,2.80995
1042.00,644.95505,2.7588902
1044.00,645.62351,2.6955401
1046.00,646.29065,2.64379995
1048.00,646.95806,2.58247
1050.00,647.62515,2.52621985
1052.00,648.2939,2.46218995
1054.00,648.96261,2.40796985
1056.00,649.6312,2.34472975
1058.00,650.30012,2.2913099
1060.00,650.9679,2.23009985
1062.00,651.63498,2.17745
1064.00,652.29867,2.11500025
1066.00,652.96459,2.06078015
1068.00,653.63379,1.99810985
1070.00,654.30433,1.9446801
1072.00,654.97438,1.88503975
1074.00,655.64265,1.8308301
1076.00,656.31049,1.76973005
1078.00,656.98023,1.71957005
1080.00,657.64964,1.66445015
1082.00,658.32077,1.61293
1084.00,658.99125,1.5546498
1086.00,659.66185,1.50144995
1088.00,660.33064,1.44304985
1090.00,660.99728,1.39694995
1092.00,661.66513,1.3394502
1094.00,662.33459,1.2801701
1096.00,663.00557,1.2174899
1098.00,663.67487,1.1663102
1100.00,664.34302,1.10759
1102.00,665.01282,1.05754
1104.00,665.68234,1.0021902
1106.00,666.35126,0.9566502
1108.00,667.019,0.90569985
1110.00,667.68897,0.8622999
1112.00,668.36038,0.8131398
1114.00,669.03167,0.77234025
1116.00,669.70288,0.72647025
1118.00,670.37392,0.6881402
1120.00,671.04454,0.64812
1122.00,671.7129,0.61318015
1124.00,672.38159,0.57282005
1126.00,673.05259,0.5396798
1128.00,673.72472,0.5066501
1130.00,674.39588,0.4789202
1132.00,675.06695,0.44599995
1134.00,675.7371,0.41861985
1136.00,676.40723,0.3876202
1138.00,677.07661,0.3649602
1140.00,677.74703,0.3376802
1142.00,678.41797,0.31467975
1144.00,679.0869,0.29044015
1146.00,679.75464,0.2711698
1148.00,680.42228,0.2513302
1150.00,681.09017,0.23260985
1152.00,681.75977,0.21401985
1154.00,682.42772,0.19597985
1156.00,683.09721,0.17648015
1158.00,683.7651,0.1613799
1160.00,684.43251,0.14525995
1162.00,685.098,0.13376
1164.00,685.76498,0.12181015
1166.00,686.43257,0.1118898
1168.00,687.09975,0.09982995
1170.00,687.76466,0.08991015
1172.00,688.42995,0.0784201
1174.00,689.09483,0.06837985
1176.00,689.76026,0.05834015
1178.00,690.42459,0.0514701
1180.00,691.08958,0.0434599
1182.00,691.75385,0.03546015
1184.00,692.4192,0.0288101
1186.00,693.08584,0.02216005
1188.00,693.75169,0.01765995
1190.00,694.41751,0.01247015
1192.00,695.08113,0.0047025
1194.00,695.74503,-0.0014025
1196.00,696.40811,-0.00612975
1198.00,697.07193,-0.01063975
1200.00,697.73498,-1.19E-02
1202.00,698.39808,-1.53E-02
1204.00,699.06159,-1.90E-02
1206.00,699.72703,-2.16E-02
1208.00,700.39264,-2.48E-02
1210.00,701.06028,-2.80E-02
1212.00,701.72316,-3.11E-02
1214.00,702.38692,-3.22E-02
1216.00,703.04813,-3.39E-02
1218.00,703.7108,-3.54E-02
1220.00,704.37264,-3.71E-02
1222.00,705.03674,-3.93E-02
1224.00,705.70166,-4.09E-02
1226.00,706.36584,-4.46E-02
1228.00,707.02877,-4.70E-02
1230.00,707.69026,-4.83E-02
1232.00,708.35075,-4.83E-02
1234.00,709.01146,-4.99E-02
1236.00,709.67331,-5.14E-02
1238.00,710.33919,-0.0524601
1240.00,711.00485,-0.0531399
1242.00,711.67149,-0.0531399
1244.00,712.33731,-0.0522302
1246.00,713.00356,-0.05132985
1248.00,713.66747,-0.0524601
1250.00,714.33193,-0.05438015
1252.00,714.99721,-0.05572985
1254.00,715.66225,-0.0567402
1256.00,716.32812,-0.0570801
1258.00,716.99344,-0.0584298
1260.00,717.65877,-0.0584298
1262.00,718.32362,-0.05978005
1264.00,718.98906,-0.0582098
1266.00,719.65893,-0.0582098
1268.00,720.32234,-0.0582098
1270.00,720.9841,-0.0568502
1272.00,721.64262,-0.0568502
1274.00,722.30707,-0.0583198
1276.00,722.97274,-0.05967005
1278.00,723.63921,-0.0610302
1280.00,724.30475,-0.05956995
1282.00,724.96793,-0.05956995
1284.00,725.63241,-0.05956995
1286.00,726.2961,-0.05956995
1288.00,726.96161,-0.05855025
1290.00,727.62756,-0.05855025
1292.00,728.29454,-0.05855025
1294.00,728.96107,-0.05855025
1296.00,729.6271,-0.05855025
1298.00,730.29195,-0.05855025
1300.00,730.95757,-0.0582098
1302.00,731.62264,-0.0582098
1304.00,732.28839,-0.0578699
1306.00,732.9549,-0.0578699
1308.00,733.62051,-0.0578699
1310.00,734.28672,-0.0578699
1312.00,734.95384,-0.05923005
1314.00,735.62397,-0.05923005
1316.00,736.29325,-0.05923005
1318.00,736.96082,-0.05923005
1320.00,737.62798,-0.05923005
1322.00,738.29644,-0.06057975
1324.00,738.96551,-0.06057975
1326.00,739.63408,-0.05866025
1328.00,740.30112,-0.0576499
1330.00,740.96708,-0.0576499
1332.00,741.63228,-0.0576499
1334.00,742.29887,-0.05923005
1336.00,742.96643,-0.06057975
1338.00,743.63329,-0.05989995
1340.00,744.30108,-0.05956005
1342.00,744.96731,-0.05922015
1344.00,745.63535,-0.05922015
1346.00,746.30169,-0.06057975
1348.00,746.96987,-0.06057975
1350.00,747.63751,-0.06193
1352.00,748.30364,-0.06193
1354.00,748.97039,-0.0584298
1356.00,749.63775,-0.05527995
1358.00,750.30489,-0.0567402
1360.00,750.97064,-0.06373015
1362.00,751.63484,-0.06485985
1364.00,752.30144,-0.0612502
1366.00,752.96654,-0.0577599
1368.00,753.6321,-0.05527995
1370.00,754.2981,-0.0568601
1372.00,754.96567,-0.06011995
1374.00,755.63307,-0.0613602
1376.00,756.2991,-0.0613602
1378.00,756.96498,-0.06023985
1380.00,757.63151,-0.05866025
1382.00,758.29818,-0.05764
1384.00,758.96401,-0.05764
1386.00,759.62946,-0.05764
1388.00,760.29613,-0.05900015
1390.00,760.96262,-0.05900015
1392.00,761.63077,-0.05900015
1394.00,762.29774,-0.05900015
1396.00,762.96472,-0.05967005
1398.00,763.62916,-0.06000995
1400.00,764.2972,-0.0609202
1402.00,764.96331,-0.0612502
1404.00,765.6311,-0.05978995
1406.00,766.2932,-0.05978995
1408.00,766.95925,-0.05978995
1410.00,767.62348,-0.05978995
1412.00,768.28907,-0.0565202
1414.00,768.95361,-0.0520102
1416.00,769.61838,-0.03600025
1418.00,770.28446,-0.04670985
1420.00,770.94964,-0.0668899
1422.00,771.61693,-0.06507985
1424.00,772.28136,-0.0715099
1426.00,772.94594,-0.0715099
1428.00,773.61315,-0.06429005
1430.00,774.28057,-0.0580998
1432.00,774.94969,-0.0531399
1434.00,775.61534,-0.05594985
1436.00,776.28161,-0.0578699
1438.00,776.94871,-0.05989995
1440.00,777.61388,-0.0671099
1442.00,778.27934,-0.06802015
1444.00,778.9436,-0.05561985
1446.00,779.60808,-0.05054005
1448.00,780.2729,-0.04953025
1450.00,780.93787,-0.04953025
1452.00,781.60606,-0.05382025
1454.00,782.27367,-0.06057975
1456.00,782.94077,-0.0627198
1458.00,783.60554,-0.0627198
1460.00,784.27057,-0.06440995
1462.00,784.93623,-0.06407005
1464.00,785.60455,-0.0621599
1466.00,786.27228,-0.0614801
1468.00,786.94001,-0.05989995
1470.00,787.60816,-0.05923005
1472.00,788.2757,-0.06057975
1474.00,788.94534,-0.06057975
1476.00,789.61141,-0.06057975
1478.00,790.27767,-0.06057975
1480.00,790.94113,-0.05989995
1482.00,791.60485,-0.05989995
1484.00,792.27012,-0.05989995
1486.00,792.9359,-0.05922015
1488.00,793.60441,-0.05922015
1490.00,794.27224,-0.05922015
1492.00,794.9387,-0.05922015
1494.00,795.60311,-0.05922015
1496.00,796.27054,-0.06057975
1498.00,796.93982,-0.06193
1500.00,797.61007,-0.0612502
1502.00,798.27854,-0.06056985
1504.00,798.94854,-0.06056985
1506.00,799.61738,-0.05922015
1508.00,800.28428,-0.0585398
1510.00,800.95067,-0.05877025
1512.00,801.61743,-0.0580998
1514.00,802.28546,-0.0580998
1516.00,802.95129,-0.05923005
1518.00,803.61531,-0.05967995
1520.00,804.28003,-0.05967995
1522.00,804.94503,-0.0610302
1524.00,805.61241,-0.0610302
1526.00,806.28139,-0.05945005
1528.00,806.95023,-0.05945005
1530.00,807.61834,-0.05945005
1532.00,808.28447,-0.06012985
1534.00,808.95149,-0.0608102
1536.00,809.61929,-0.0608102
1538.00,810.28818,-0.0614801
1540.00,810.95713,-0.0621599
1542.00,811.62547,-0.05923005
1544.00,812.29554,-0.0582098
1546.00,812.96472,-0.05617975
1548.00,813.63246,-0.05550985
1550.00,814.29769,-0.05483005
1552.00,814.96277,-0.0568601
1554.00,815.6285,-0.0583198
1556.00,816.29555,-0.05911015
1558.00,816.96117,-0.05911015
1560.00,817.62625,-0.05911015
1562.00,818.29151,-0.05911015
1564.00,818.95797,-0.05978995
1566.00,819.62613,-0.06045985
1568.00,820.29177,-0.06045985
1570.00,820.95754,-0.06045985
1572.00,821.62079,-0.06045985
1574.00,822.28779,-0.05911015
1576.00,822.95362,-0.05911015
1578.00,823.62115,-0.05753
1580.00,824.28792,-0.05617975
1582.00,824.95402,-0.05483005
1584.00,825.62126,-0.05483005
1586.00,826.28808,-0.05866025
1588.00,826.95509,-0.0614801
1590.00,827.62019,-0.06451995
1592.00,828.28544,-0.06519975
1594.00,828.95034,-0.06374005
1596.00,829.61823,-0.0620499
1598.00,830.28412,-0.0620499
1600.00,830.95169,-0.06306025
1602.00,831.61593,-0.06340015
1604.00,832.28251,-0.06474985
1606.00,832.94833,-0.06396005
1608.00,833.6157,-0.06193
1610.00,834.2827,-0.0616
1612.00,834.94839,-0.0616
1614.00,835.61106,-0.06295025
1616.00,836.27326,-0.0615901
1618.00,836.93648,-0.06056985
1620.00,837.6032,-0.05990985
1622.00,838.26954,-0.05889015
1624.00,838.93793,-0.0575399
1626.00,839.60502,-0.0575399
1628.00,840.27315,-0.05889015
1630.00,840.94092,-0.05956995
1632.00,841.60728,-0.06023985
1634.00,842.27364,-0.06056985
1636.00,842.93894,-0.0615901
1638.00,843.60992,-0.0615901
1640.00,844.27946,-0.06046975
1642.00,844.94783,-0.0582098
1644.00,845.60933,-0.05404025
1646.00,846.27202,-0.04953025
1648.00,846.93692,-0.05494005
1650.00,847.60411,-0.06429995
1652.00,848.27029,-0.06936985
1654.00,848.93682,-0.06497975
1656.00,849.60598,-0.0609202
1658.00,850.27573,-0.06022995
1660.00,850.94484,-0.06056985
1662.00,851.61194,-0.06090975
1664.00,852.27766,-0.0624899
1666.00,852.94392,-0.0624899
1668.00,853.60957,-0.05956005
1670.00,854.2767,-0.05572985
1672.00,854.94419,-0.05572985
1674.00,855.61372,-0.05572985
1676.00,856.2811,-0.0570801
1678.00,856.94662,-0.05889015
1680.00,857.61244,-5.99E-02
1682.00,858.27947,-5.99E-02
1684.00,858.94744,-6.13E-02
1686.00,859.61323,-6.26E-02
1688.00,860.28044,-6.26E-02
1690.00,860.9471,-6.13E-02
1692.00,861.61369,-6.13E-02
1694.00,862.27957,-6.32E-02
1696.00,862.94603,-6.43E-02
1698.00,863.61315,-6.43E-02
1700.00,864.28023,-6.23E-02
1702.00,864.94741,-6.19E-02
1704.00,865.61346,-6.16E-02
1706.00,866.27911,-6.17E-02
1708.00,866.94651,-6.03E-02
1710.00,867.61441,-5.97E-02
1712.00,868.28321,-5.93E-02
1714.00,868.94995,-5.88E-02
1716.00,869.61595,-5.72E-02
1718.00,870.28044,-5.68E-02
1720.00,870.94543,-5.54E-02
1722.00,871.61238,-5.57E-02
1724.00,872.27887,-5.69E-02
1726.00,872.94633,-5.35E-02
1728.00,873.61218,-4.57E-02
1730.00,874.27944,-4.36E-02
1732.00,874.94706,-5.39E-02
1734.00,875.61454,-6.50E-02
1736.00,876.28228,-7.20E-02
1738.00,876.94879,-6.77E-02
1740.00,877.6157,-6.07E-02
1742.00,878.28229,-5.52E-02
1744.00,878.94805,-4.61E-02
1746.00,879.61448,-6.47E-02
1748.00,880.28245,-8.13E-02
1750.00,880.95059,-7.99E-02
1752.00,881.61998,-7.03E-02
1754.00,882.28843,-6.00E-02
1756.00,882.95656,-5.66E-02
1758.00,883.62484,-5.66E-02
1760.00,884.29267,-5.66E-02
1762.00,884.96036,-6.11E-02
1764.00,885.62654,-6.34E-02
1766.00,886.292,-6.17E-02
1768.00,886.95812,-6.02E-02
1770.00,887.62484,-5.84E-02
1772.00,888.29251,-5.13E-02
1774.00,888.96008,-3.66E-02
1776.00,889.6268,-4.10E-02
1778.00,890.29395,-6.95E-02
1780.00,890.96103,-6.85E-02
1782.00,891.62887,-6.30E-02
1784.00,892.29556,-6.07E-02
1786.00,892.96307,-5.22E-02
1788.00,893.62956,-2.60E-02
1790.00,894.29739,-3.18E-02
1792.00,894.96495,-6.15E-02
1794.00,895.63426,-8.77E-02
1796.00,896.30083,-7.78E-02
1798.00,896.96779,-6.23E-02
1800.00,897.63546,-3.17E-02
1802.00,898.30428,-4.46E-02
1804.00,898.97095,-7.89E-02
1806.00,899.63792,-8.31E-02
1808.00,900.30441,-7.57E-02
1810.00,900.97171,-6.80E-02
1812.00,901.63495,-6.66E-02
1814.00,902.29995,-6.59E-02
1816.00,902.96631,-6.49E-02
1818.00,903.63474,-6.39E-02
1820.00,904.30361,-6.13E-02
1822.00,904.97024,-5.93E-02
1824.00,905.63891,-5.91E-02
1826.00,906.30754,-5.81E-02
1828.00,906.97605,-5.81E-02
1830.00,907.64473,-5.97E-02
1832.00,908.31044,-6.13E-02
1834.00,908.97649,-6.13E-02
1836.00,909.64126,-6.13E-02
1838.00,910.30594,-6.26E-02
1840.00,910.97062,-6.40E-02
1842.00,911.63769,-6.40E-02
1844.00,912.30536,-6.26E-02
1846.00,912.97264,-6.40E-02
1848.00,913.63771,-6.40E-02
1850.00,914.30256,-6.40E-02
1852.00,914.97007,-6.40E-02
1854.00,915.63736,-6.27E-02
1856.00,916.30577,-6.16E-02
1858.00,916.97264,-6.06E-02
1860.00,917.64082,-6.06E-02
1862.00,918.30541,-0.05606975
1864.00,918.97067,-0.04219985
1866.00,919.63636,-0.0399498
1868.00,920.30446,-0.0703802
1870.00,920.97236,-0.0764698
1872.00,921.63936,-0.07714025
1874.00,922.307,-0.0747802
1876.00,922.97388,-0.0702702
1878.00,923.64036,-0.06552975
1880.00,924.3058,-0.0613602
1882.00,924.97636,-0.0613602
1884.00,925.64444,-0.06034985
1886.00,926.31169,-0.06034985
1888.00,926.97463,-0.06034985
1890.00,927.63998,-0.06034985
1892.00,928.30618,-0.0613701
1894.00,928.97249,-0.06068975
1896.00,929.63962,-0.0582098
1898.00,930.30611,-0.0568601
1900.00,930.97213,-0.0572
1902.00,931.63729,-0.05866025
1904.00,932.30331,-0.05934005
1906.00,932.96895,-0.05505995
1908.00,933.63563,-0.05438015
1910.00,934.30159,-0.0580998
1912.00,934.96929,-0.06474985
1914.00,935.63627,-0.06981975
1916.00,936.30542,-0.0655402
1918.00,936.97364,-0.06182
1920.00,937.64208,-0.0608102
1922.00,938.30846,-0.05088985
1924.00,938.97474,-0.04186985
1926.00,939.64151,-0.06034985
1928.00,940.30798,-0.06768025
1930.00,940.97462,-0.06813015
1932.00,941.64231,-0.06317025
1934.00,942.31102,-0.0577599
1936.00,942.97913,-0.0578699
1938.00,943.64671,-0.0625999
1940.00,944.31257,-0.0612502
1942.00,944.98064,-0.0566302
1944.00,945.64631,-0.0538098
1946.00,946.31433,-0.05583985
1948.00,946.97975,-0.05888025
1950.00,947.64869,-0.06090975
1952.00,948.31599,-0.0624899
1954.00,948.98285,-0.06396005
1956.00,949.64831,-0.06496985
1958.00,950.31352,-0.06530975
1960.00,950.98164,-0.06666
1962.00,951.6479,-0.06462995
1964.00,952.3145,-0.0622699
1966.00,952.9792,-0.0612502
1968.00,953.64577,-0.05923005
1970.00,954.31254,-0.05855025
1972.00,954.98053,-0.05989995
1974.00,955.64788,-0.06057975
1976.00,956.31572,-0.06057975
1978.00,956.98071,-0.06057975
1980.00,957.65033,-0.06057975
1982.00,958.31846,-0.05889015
1984.00,958.98662,-0.05709
1986.00,959.65241,-0.05550985
1988.00,960.31876,-0.05404025
1990.00,960.98577,-0.05505005
1992.00,961.65395,-0.0566302
1994.00,962.32038,-0.05878015
1996.00,962.9877,-0.05878015
1998.00,963.6548,-0.0572
2000.00,964.32265,-0.05527995
2002.00,964.98977,-0.05382025
2004.00,965.65671,-0.0576499
2006.00,966.326,-0.0613602
2008.00,966.99436,-0.0617001
2010.00,967.6632,-0.0627198
2012.00,968.33003,-0.0627198
2014.00,968.99896,-0.06056985
2016.00,969.66583,-0.05956005
2018.00,970.33226,-0.05956005
2020.00,971.00018,-0.05989995
2022.00,971.66823,-0.0612502
2024.00,972.3349,-0.0612502
2026.00,973.00144,-0.06034985
2028.00,973.66845,-0.05742
2030.00,974.33818,-0.05606975
2032.00,975.00481,-0.05606975
2034.00,975.67041,-0.05449015
2036.00,976.3358,-0.05415025
2038.00,977.00384,-0.05415025
2040.00,977.67403,-0.05549995
2042.00,978.3432,-0.05549995
2044.00,979.00916,-0.05549995
2046.00,979.67192,-0.0578699
2048.00,980.33573,-0.0613701
2050.00,981.00159,-0.06171
2052.00,981.66961,-0.06171
2054.00,982.33689,-0.06171
2056.00,983.00595,-0.06035975
2058.00,983.67449,-0.06035975
2060.00,984.34269,-0.06035975
2062.00,985.00983,-0.06035975
2064.00,985.67765,-0.05900015
2066.00,986.34522,-0.06034985
2068.00,987.01168,-0.05900015
2070.00,987.6776,-0.05900015
2072.00,988.34401,-0.05900015
2074.00,989.00946,-0.05471015
2076.00,989.6769,-0.0494098
2078.00,990.34236,-0.0476102
2080.00,991.00795,-0.05043005
2082.00,991.67379,-0.0563002
2084.00,992.33995,-0.06012985
2086.00,993.0062,-0.06317025
2088.00,993.67217,-0.0629398
2090.00,994.33962,-0.06193
2092.00,995.00805,-0.0615901
2094.00,995.6756,-0.0615901
2096.00,996.34052,-0.06193
2098.00,997.00821,-0.0629398
2100.00,997.67394,-0.0613701
2102.00,998.3412,-0.05978995
2104.00,999.00552,-0.05978995
2106.00,999.67297,-0.0611402
2108.00,1000.34029,-0.05978995
2110.00,1001.00833,-0.05978995
2112.00,1001.67532,-0.05877025
2114.00,1002.34272,-0.05911015
2116.00,1003.00995,-0.06034985
2118.00,1003.67705,-0.0579799
2120.00,1004.34326,-0.05900015
2122.00,1005.00908,-0.05866025
2124.00,1005.67516,-0.05594985
2126.00,1006.34195,-0.0526801
2128.00,1007.00728,-0.05121985
2130.00,1007.67321,-0.05121985
2132.00,1008.3417,-0.05121985
2134.00,1009.01124,-0.05121985
2136.00,1009.67916,-0.0540298
2138.00,1010.3449,-0.0569701
2140.00,1011.01028,-0.06090975
2142.00,1011.67572,-0.06215
2144.00,1012.34276,-0.05956005
2146.00,1013.00956,-0.05956005
2148.00,1013.6771,-0.05956005
2150.00,1014.34468,-0.05956005
2152.00,1015.01063,-0.0626098
2154.00,1015.67742,-0.0626098
2156.00,1016.34454,-0.0568502
2158.00,1017.01174,-0.05291
2160.00,1017.67705,-0.05527995
2162.00,1018.34218,-0.06034985
2164.00,1019.00936,-0.0623898
2166.00,1019.68444,-0.06012985
2168.00,1020.35274,-0.0568601
2170.00,1021.02161,-0.0568601
2172.00,1021.68359,-0.0561902
2174.00,1022.35177,-0.05595975
2176.00,1023.0191,-0.05527995
2178.00,1023.68557,-0.0577599
2180.00,1024.35257,-0.05934005
2182.00,1025.02058,-0.05967995
2184.00,1025.68907,-0.05538995
2186.00,1026.35702,-0.05133975
2188.00,1027.02415,-0.0532499
2190.00,1027.69167,-0.0577599
2192.00,1028.35857,-0.05967995
2194.00,1029.02521,-0.06000995
2196.00,1029.69607,-0.05934005
2198.00,1030.36356,-0.0583198
2200.00,1031.03093,-0.0583198
2202.00,1031.69507,-0.05945005
2204.00,1032.3614,-0.0614801
2206.00,1033.02982,-0.06068975
2208.00,1033.69864,-0.0565202
2210.00,1034.36789,-0.05121985
2212.00,1035.03474,-0.04851
2214.00,1035.70115,-0.0524601
2216.00,1036.36964,-0.05945005
2218.00,1037.03897,-0.06396005
2220.00,1037.70844,-0.0672199
2222.00,1038.37495,-0.06407005
2224.00,1039.04183,-0.05560995
2226.00,1039.70923,-0.0491898
2228.00,1040.37759,-0.0475002
2230.00,1041.04536,-0.05121985
2232.00,1041.71221,-0.05527995
2234.00,1042.38056,-0.0575399
2236.00,1043.05103,-0.05889015
2238.00,1043.71915,-0.05889015
2240.00,1044.38632,-0.05889015
2242.00,1045.05041,-0.05889015
2244.00,1045.71757,-0.05889015
2246.00,1046.38378,-0.05889015
2248.00,1047.05105,-0.05889015
2250.00,1047.71716,-0.0572
2252.00,1048.38582,-0.05561985
2254.00,1049.05436,-0.0536998
2256.00,1049.7238,-0.05065995
2258.00,1050.39101,-0.05155975
2260.00,1051.05636,-0.05483005
2262.00,1051.72164,-0.05900015
2264.00,1052.38804,-0.0626098
2266.00,1053.05671,-0.06328025
2268.00,1053.72728,-0.0617001
2270.00,1054.39545,-0.06034985
2272.00,1055.06269,-0.06034985
2274.00,1055.72826,-0.05877025
2276.00,1056.39435,-0.05742
2278.00,1057.06243,-0.05742
2280.00,1057.73217,-0.05572985
2282.00,1058.40077,-0.0535898
2284.00,1059.06781,-0.0525701
2286.00,1059.73263,-0.05415025
2288.00,1060.40207,-0.05549995
2290.00,1061.07041,-0.05549995
2292.00,1061.73815,-0.0539198
2294.00,1062.40318,-0.0539198
2296.00,1063.06876,-0.0539198
2298.00,1063.73574,-0.0539198
2300.00,1064.40459,-0.0569701
2302.00,1065.07346,-0.05855025
2304.00,1065.74202,-0.06034985
2306.00,1066.40979,-0.06034985
2308.00,1067.07515,-0.05538995
2310.00,1067.73984,-0.0533698
2312.00,1068.40112,-0.05572985
2314.00,1069.0657,-0.06023985
2316.00,1069.73426,-0.0583198
2318.00,1070.405,-0.05549995
2320.00,1071.07423,-0.05404025
2322.00,1071.74095,-0.04378
2324.00,1072.40577,-0.04242975
2326.00,1073.07285,-0.0750101
2328.00,1073.73866,-0.08121025
2330.00,1074.40554,-0.06440995
2332.00,1075.07195,-0.05866025
2334.00,1075.73962,-0.05933015
2336.00,1076.40655,-0.0533599
2338.00,1077.0732,-0.04704975
2340.00,1077.73969,-0.0517902
2342.00,1078.40662,-0.05527995
2344.00,1079.0731,-0.05076995
2346.00,1079.73945,-0.05110985
2348.00,1080.4073,-0.0579898
2350.00,1081.07483,-0.0621599
2352.00,1081.7426,-0.05494995
2354.00,1082.41016,-0.0523402
2356.00,1083.07703,-0.0523402
2358.00,1083.7449,-0.05494005
2360.00,1084.41049,-0.05605985
2362.00,1085.07785,-0.05054005
2364.00,1085.74595,-0.04953025
2366.00,1086.41409,-0.0524601
2368.00,1087.08287,-0.05617975
2370.00,1087.74977,-0.05967005
2372.00,1088.41693,-0.0612502
2374.00,1089.08283,-0.0622699
2376.00,1089.74813,-0.0609202
2378.00,1090.41575,-0.0579898
2380.00,1091.08358,-0.0536998
2382.00,1091.75182,-0.04931025
2384.00,1092.42028,-0.04931025
2386.00,1093.08867,-0.05110985
2388.00,1093.75874,-0.0524601
2390.00,1094.42804,-0.05404025
2392.00,1095.09484,-0.05538995
2394.00,1095.76187,-0.05538995
2396.00,1096.4279,-0.0564102
2398.00,1097.09438,-0.0583198
2400.00,1097.75918,-0.0569701
2402.00,1098.42505,-0.05877025
2404.00,1099.09246,-0.0614801
2406.00,1099.76046,-0.05967005
2408.00,1100.42821,-0.0582098
2410.00,1101.09575,-0.0570801
2412.00,1101.76272,-0.05426025
2414.00,1102.42964,-0.05594985
2416.00,1103.09605,-0.06215
2418.00,1103.76225,-0.06023985
2420.00,1104.42679,-0.05753
2422.00,1105.09133,-0.05742
2424.00,1105.75558,-0.05438015
2426.00,1106.42179,-0.0530299
2428.00,1107.08925,-0.05606975
2430.00,1107.75682,-0.05449015
2432.00,1108.42246,-0.05449015
2434.00,1109.08982,-0.05054995
2436.00,1109.75674,-0.0426602
2438.00,1110.42289,-0.02833985
2440.00,1111.08561,-0.04007025
2442.00,1111.74903,-0.06362015
2444.00,1112.41516,-0.0757999
2446.00,1113.08401,-0.07353995
2448.00,1113.75323,-0.0624899
2450.00,1114.42,-0.0583198
2452.00,1115.0863,-0.0579898
2454.00,1115.75159,-0.05427015
2456.00,1116.41902,-0.05427015
2458.00,1117.08423,-0.0579898
2460.00,1117.749,-0.06001985
2462.00,1118.41339,-0.0584298
2464.00,1119.07933,-0.05482015
2466.00,1119.74726,-0.05482015
2468.00,1120.41438,-0.05764
2470.00,1121.07995,-0.06090975
2472.00,1121.74608,-0.05753
2474.00,1122.41141,-0.05731
2476.00,1123.08058,-0.0610302
2478.00,1123.74703,-0.06339025
2480.00,1124.41306,-0.05899025
2482.00,1125.07941,-0.05291
2484.00,1125.74838,-0.0479501
2486.00,1126.41862,-0.04975025
2488.00,1127.08721,-0.05505005
2490.00,1127.7542,-0.05572985
2492.00,1128.42134,-0.0568601
2494.00,1129.08884,-0.05844025
2496.00,1129.75662,-0.05911015
2498.00,1130.42464,-0.0479501
2500.00,1131.09156,-0.04085015
2502.00,1131.75883,-0.0531399
2504.00,1132.42477,-0.06508975
2506.00,1133.0912,-0.06981975
2508.00,1133.75836,-0.0662101
2510.00,1134.42492,-0.06182
2512.00,1135.09193,-0.05978995
2514.00,1135.75785,-0.05087995
2516.00,1136.42485,-0.04253975
2518.00,1137.09084,-0.04491025
2520.00,1137.75818,-0.04648985
2522.00,1138.42638,-0.0484
2524.00,1139.09413,-0.04976015
2526.00,1139.76085,-0.0530299
2528.00,1140.42682,-0.0571901
2530.00,1141.09389,-0.05967005
2532.00,1141.76021,-0.0610302
2534.00,1142.42702,-0.0613602
2536.00,1143.09424,-0.0583198
2538.00,1143.76152,-0.04851
2540.00,1144.42764,-0.04197985
2542.00,1145.09465,-0.0443399
2544.00,1145.76219,-0.04953025
2546.00,1146.43221,-0.05945005
2548.00,1147.10072,-0.0674498
2550.00,1147.76939,-0.05911015
2552.00,1148.43564,-0.0488499
2554.00,1149.10326,-0.04658995
2556.00,1149.76997,-0.0489599
2558.00,1150.43803,-0.05415025
2560.00,1151.1039,-0.05415025
2562.00,1151.77167,-0.0523402
2564.00,1152.43756,-0.04862
2566.00,1153.10426,-0.0472802
2568.00,1153.76925,-0.04625995
2570.00,1154.43541,-0.05449015
2572.00,1155.10202,-0.06306025
2574.00,1155.77075,-0.0611402
2576.00,1156.43771,-0.0566302
2578.00,1157.10508,-0.05900015
2580.00,1157.76972,-0.05878015
2582.00,1158.43517,-0.05945005
2584.00,1159.1012,-0.06079975
2586.00,1159.76952,-0.05753
2588.00,1160.43949,-0.05855025
2590.00,1161.1059,-0.0565202
2592.00,1161.77304,-0.05177975
2594.00,1162.43664,-0.04625995
2596.00,1163.1029,-0.0431002
2598.00,1163.76664,-0.0486299
2600.00,1164.43204,-0.05978995
2602.00,1165.09766,-0.0580899
2604.00,1165.76417,-0.05302
2606.00,1166.43138,-0.05302
2608.00,1167.09736,-0.05302
2610.00,1167.76321,-0.05527995
2612.00,1168.42943,-0.0528
2614.00,1169.09657,-0.03578025
2616.00,1169.7599,-0.05258
2618.00,1170.42439,-0.06519975
2620.00,1171.08948,-0.0672298
2622.00,1171.76041,-0.06001985
2624.00,1172.42969,-0.05709
2626.00,1173.0963,-0.05889015
2628.00,1173.75992,-0.0565202
2630.00,1174.42615,-0.04942025
2632.00,1175.0919,-0.0428802
2634.00,1175.75719,-0.0309298
2636.00,1176.42026,-0.0297
2638.00,1177.08505,-0.05731
2640.00,1177.75192,-0.06835015
2642.00,1178.41901,-0.07230025
2644.00,1179.08464,-0.0703901
2646.00,1179.75084,-0.06396005
2648.00,1180.41579,-0.05933015
2650.00,1181.08361,-0.05900015
2652.00,1181.75168,-0.05583985
2654.00,1182.41937,-0.05269
2656.00,1183.08496,-0.05065995
2658.00,1183.74932,-0.05472005
2660.00,1184.4134,-0.05709
2662.00,1185.07775,-0.05594985
2664.00,1185.74343,-0.0568601
2666.00,1186.40964,-0.0566401
2668.00,1187.07708,-0.0566401
2670.00,1187.74108,-0.0534798
2672.00,1188.40485,-0.0528
2674.00,1189.06803,-0.05922015
2676.00,1189.73325,-0.0622699
2678.00,1190.39899,-0.05572985
2680.00,1191.06479,-0.04536015
2682.00,1191.73044,-0.04275975
2684.00,1192.39484,-0.0446798
2686.00,1193.05929,-0.04603005
2688.00,1193.72582,-0.04536015
2690.00,1194.39335,-0.05144975
2692.00,1195.06012,-0.05866025
2694.00,1195.72649,-0.05956995
2696.00,1196.3903,-0.05393025
2698.00,1197.05482,-0.0445698
2700.00,1197.71944,-0.03329975
2702.00,1198.38592,-0.01842005
2704.00,1199.05221,-0.04659985
2706.00,1199.71883,-0.0760199
2708.00,1200.384,-0.06914985
2710.00,1201.04941,-0.0577599
2712.00,1201.71377,-0.04208985
2714.00,1202.38125,-0.0153802
2716.00,1203.04865,-0.0209
2718.00,1203.71641,-0.06362015
2720.00,1204.38269,-0.07916975
2722.00,1205.04895,-0.07420985
2724.00,1205.71524,-0.06396005
2726.00,1206.38552,-0.0566302
2728.00,1207.05418,-0.05561985
2730.00,1207.72143,-0.0582098
2732.00,1208.38638,-0.06407005
2734.00,1209.0523,-0.0659901
2736.00,1209.71888,-0.06340015
2738.00,1210.38595,-0.0576499
2740.00,1211.05372,-0.0533698
2742.00,1211.72274,-0.05021005
2744.00,1212.39015,-0.04670985
2746.00,1213.05887,-0.0441199
2748.00,1213.72439,-0.04513025
2750.00,1214.38884,-0.04715975
2752.00,1215.05517,-0.0484
2754.00,1215.72435,-0.0533599
2756.00,1216.39453,-0.0569701
2758.00,1217.06126,-0.05889015
2760.00,1217.72556,-0.05415025
2762.00,1218.39057,-0.0539198
2764.00,1219.0579,-0.0623799
2766.00,1219.72421,-0.05967005
2768.00,1220.38983,-0.0478401
2770.00,1221.0536,-0.0432102
2772.00,1221.71924,-0.04829
2774.00,1222.38524,-0.0612601
